File: Data/PolymerBlends/Film15_0010_afmspectrum0001.txt
Wavenumber (cm^-1)	Intensity (V)
760	4.88939e-06
763.996	1.65e-05
767.993	1.21622e-05
771.989	1.42732e-05
775.986	8.57346e-06
779.982	1.26389e-05
783.978	1.81139e-06
787.975	1.69358e-05
791.971	1.59824e-05
795.968	8.3964e-06
799.964	3.69428e-05
803.961	1.21349e-05
807.957	1.64932e-05
811.953	3.18219e-05
815.95	2.82332e-05
819.946	2.55842e-05
823.943	2.35004e-05
827.939	2.04633e-05
831.935	1.02282e-05
835.932	2.41133e-05
839.928	1.97687e-05
843.925	2.49917e-06
847.921	1.71061e-05
851.918	2.54139e-05
855.914	3.61597e-06
859.91	1.82365e-05
863.907	1.63774e-05
867.903	1.40144e-05
871.9	4.51485e-06
875.896	1.28227e-05
879.892	1.70039e-05
883.889	1.54513e-05
887.885	1.11952e-05
891.882	7.29323e-06
895.878	2.28807e-06
899.875	9.77197e-06
903.871	1.37489e-05
907.867	6.09471e-06
911.864	1.18149e-05
915.86	1.05074e-05
919.857	5.22988e-06
923.853	1.40076e-05
927.849	1.51653e-05
931.846	1.17196e-05
935.842	1.00784e-05
939.839	2.66737e-05
943.835	1.29657e-05
947.832	4.41952e-06
951.828	5.91085e-06
955.824	1.08411e-05
959.821	1.12361e-05
963.817	8.78456e-06
967.814	1.57169e-05
971.81	1.06572e-05
975.806	1.07934e-05
979.803	2.07288e-05
983.799	4.9643e-06
987.796	1.56352e-05
991.792	1.17127e-05
995.789	1.0344e-05
999.785	2.52437e-05
1003.78	9.38381e-06
1007.78	1.02895e-05
1011.77	3.68407e-06
1015.77	3.54787e-06
1019.77	1.1025e-05
1023.76	2.16754e-05
1027.76	1.96597e-05
1031.76	1.05823e-05
1035.75	1.18217e-05
1039.75	2.15869e-05
1043.75	1.87744e-05
1047.74	1.19238e-05
1051.74	1.73853e-05
1055.73	5.78146e-06
1059.73	8.50536e-06
1063.73	1.21213e-05
1067.72	1.28227e-05
1071.72	1.5819e-05
1075.72	9.21357e-06
1079.71	1.12429e-05
1083.71	1.14472e-05
1087.71	1.13042e-05
1091.7	1.55398e-05
1095.7	1.64523e-05
1099.7	1.15765e-05
1103.69	2.94181e-06
1107.69	1.48248e-05
1111.68	1.72559e-05
1115.68	4.23565e-06
1119.68	2.69257e-05
1123.67	1.33539e-05
1127.67	9.33615e-06
1131.67	1.00307e-05
1135.66	1.16515e-05
1139.66	6.84378e-06
1143.66	2.6844e-05
1147.65	1.7324e-05
1151.65	1.14404e-05
1155.65	1.2421e-05
1159.64	8.08996e-06
1163.64	1.37284e-05
1167.63	9.64258e-06
1171.63	1.64115e-06
1175.63	5.65889e-06
1179.62	1.11067e-05
1183.62	1.08956e-05
1187.62	1.02487e-05
1191.61	1.13178e-05
1195.61	6.80973e-06
1199.61	6.59182e-06
1203.6	3.26186e-06
1207.6	9.84688e-06
1211.59	4.32418e-06
1215.59	1.53764e-05
1219.59	2.67623e-06
1223.58	9.71749e-06
1227.58	1.15425e-05
1231.58	4.17437e-06
1235.57	1.66226e-05
1239.57	2.57136e-05
1243.57	1.45524e-05
1247.56	1.30202e-05
1251.56	8.43726e-06
1255.56	3.36401e-06
1259.55	1.13723e-05
1263.55	2.03815e-05
1267.54	1.05415e-05
1271.54	1.86519e-05
1275.54	1.31155e-05
1279.53	1.27274e-05
1283.53	1.21281e-05
1287.53	2.16073e-05
1291.52	1.62821e-05
1295.52	1.81343e-05
1299.52	9.37019e-06
1303.51	1.98776e-05
1307.51	2.34663e-05
1311.51	9.36338e-06
1315.5	1.49542e-05
1319.5	8.21935e-06
1323.49	7.53157e-06
1327.49	1.81275e-05
1331.49	1.7181e-05
1335.48	2.1403e-05
1339.48	1.8216e-05
1343.48	8.7437e-06
1347.47	1.67247e-05
1351.47	8.49855e-06
1355.47	4.58091e-05
1359.46	2.98062e-05
1363.46	3.95986e-05
1367.46	4.58295e-05
1371.45	4.59861e-05
1375.45	5.66161e-05
1379.44	4.29626e-05
1383.44	5.52338e-05
1387.44	4.04294e-05
1391.43	4.55571e-05
1395.43	3.89789e-05
1399.43	6.25066e-05
1403.42	4.49238e-05
1407.42	2.84715e-05
1411.42	3.01739e-05
1415.41	5.51929e-05
1419.41	2.70142e-05
1423.41	3.04123e-05
1427.4	2.45491e-05
1431.4	5.12228e-05
1435.39	6.20367e-05
1439.39	4.10286e-05
1443.39	5.53223e-05
1447.38	8.94186e-05
1451.38	9.99533e-05
1455.38	0.000110726
1459.37	6.31262e-05
1463.37	5.35722e-05
1467.37	7.57174e-05
1471.36	4.72119e-05
1475.36	5.22783e-05
1479.35	7.57174e-05
1483.35	6.87511e-05
1487.35	7.78148e-05
1491.34	7.21083e-05
1495.34	0.000129514
1499.34	9.18906e-05
1503.33	8.29085e-05
1507.33	6.81995e-05
1511.33	5.88702e-05
1515.32	5.2469e-05
1519.32	5.00243e-05
1523.32	6.00346e-05
1527.31	6.27313e-05
1531.31	6.60068e-05
1535.3	4.47944e-05
1539.3	3.71471e-05
1543.3	4.09742e-05
1547.29	4.38615e-05
1551.29	3.53017e-05
1555.29	4.5312e-05
1559.28	2.42971e-05
1563.28	4.51009e-05
1567.28	4.87781e-05
1571.27	3.97348e-05
1575.27	2.58838e-05
1579.27	3.18696e-05
1583.26	2.91457e-05
1587.26	4.66807e-05
1591.25	7.94015e-06
1595.25	3.82571e-05
1599.25	5.02626e-05
1603.24	4.21182e-05
1607.24	1.5424e-05
1611.24	1.52674e-05
1615.23	6.70078e-06
1619.23	1.50018e-05
1623.23	1.15561e-05
1627.22	1.48044e-05
1631.22	7.91972e-06
1635.22	2.17639e-05
1639.21	1.02895e-05
1643.21	1.64932e-05
1647.2	4.07222e-06
1651.2	6.3671e-06
1655.2	1.5499e-05
1659.19	6.49649e-06
1663.19	2.01296e-05
1667.19	1.05006e-05
1671.18	1.68677e-05
1675.18	2.77224e-05
1679.18	8.1172e-06
1683.17	1.16242e-05
1687.17	1.16651e-05
1691.16	3.3606e-05
1695.16	1.36944e-05
1699.16	1.55126e-05
1703.15	7.96058e-06
1707.15	1.89106e-05
1711.15	2.80561e-05
1715.14	9.8605e-06
1719.14	1.05823e-05
1723.14	3.00786e-05
1727.13	8.36916e-06
1731.13	2.35685e-05
1735.13	1.3422e-05
1739.12	6.9936e-06
1743.12	1.3313e-05
1747.11	1.44707e-05
1751.11	1.85361e-05
1755.11	4.48081e-06
1759.1	2.91661e-05
1763.1	2.8669e-05
1767.1	1.21962e-05
1771.09	1.57169e-05
1775.09	1.1488e-05
1779.09	1.78143e-05
1783.08	2.37387e-05
1787.08	1.25163e-05
1791.08	1.91354e-05
1795.07	2.11306e-05
1799.07	9.45872e-06
1803.06	1.47022e-05
1807.06	1.23052e-05
1811.06	7.66095e-06
1815.05	2.37524e-05
1819.05	3.24143e-06
1823.05	1.18285e-05
1827.04	8.87989e-06
1831.04	8.01506e-06
1835.04	4.26289e-06
1839.03	6.6463e-06
1843.03	9.36338e-06
1847.03	1.60505e-05
1851.02	1.19511e-05
1855.02	1.15357e-05
1859.01	8.16487e-06
1863.01	9.64258e-06
1867.01	3.35039e-06
1871	8.26021e-06
1875	1.37352e-05