File: Data/PolymerBlends/Film15_0004_afmspectrum0001.txt
Wavenumber (cm^-1)	Intensity (V)
760	1.17332e-05
763.996	1.17877e-05
767.993	7.73586e-06
771.989	8.69603e-06
775.986	1.21962e-05
779.982	7.4839e-06
783.978	6.87102e-06
787.975	4.6851e-06
791.971	2.94862e-06
795.968	3.98369e-06
799.964	3.71131e-06
803.961	1.33811e-05
807.957	9.56768e-06
811.953	6.96636e-06
815.95	8.70965e-06
819.946	1.15834e-05
823.943	1.02214e-05
827.939	4.17437e-06
831.935	6.93231e-06
835.932	3.60235e-06
839.928	4.42633e-06
843.925	2.3085e-06
847.921	5.88361e-06
851.918	2.73751e-06
855.914	8.71646e-06
859.91	3.55468e-06
863.907	8.13763e-06
867.903	5.27073e-06
871.9	3.74535e-07
875.896	2.33574e-06
879.892	4.38547e-06
883.889	2.00887e-06
887.885	5.3184e-06
891.882	6.42158e-06
895.878	2.10421e-06
899.875	9.13866e-06
903.871	4.30375e-06
907.867	4.67148e-06
911.864	7.25918e-06
915.86	1.32109e-06
919.857	1.17127e-06
923.853	9.13185e-06
927.849	4.76e-06
931.846	1.07594e-05
935.842	3.40487e-06
939.839	4.24246e-06
943.835	8.54622e-06
947.832	2.08378e-06
951.828	2.13145e-06
955.824	1.23937e-06
959.821	2.66942e-06
963.817	7.06169e-06
967.814	6.31943e-06
971.81	2.50598e-06
975.806	3.7794e-06
979.803	2.26764e-06
983.799	6.32624e-06
987.796	1.34833e-06
991.792	1.00171e-05
995.789	1.02827e-05
999.785	3.03033e-06
1003.78	3.76578e-06
1007.78	2.74432e-06
1011.77	2.59451e-06
1015.77	6.38072e-06
1019.77	7.75629e-06
1023.76	3.34358e-06
1027.76	5.28435e-06
1031.76	4.11989e-06
1035.75	6.10152e-06
1039.75	3.58192e-06
1043.75	3.68407e-06
1047.74	2.79199e-07
1051.74	6.48287e-06
1055.73	4.57614e-06
1059.73	3.09843e-06
1063.73	2.56046e-06
1067.72	5.22307e-06
1071.72	3.05757e-06
1075.72	6.82335e-06
1079.71	2.88733e-06
1083.71	2.81242e-06
1087.71	1.77734e-06
1091.7	3.35039e-06
1095.7	7.1366e-06
1099.7	1.49814e-06
1103.69	2.46512e-06
1107.69	1.22848e-05
1111.68	8.28745e-06
1115.68	8.6075e-06
1119.68	5.57717e-06
1123.67	5.74061e-06
1127.67	2.95542e-06
1131.67	4.69872e-06
1135.66	5.69294e-06
1139.66	5.20264e-06
1143.66	6.32624e-06
1147.65	6.59863e-06
1151.65	4.63062e-06
1155.65	6.40796e-06
1159.64	2.26083e-06
1163.64	4.71234e-06
1167.63	2.59451e-06
1171.63	3.078e-06
1175.63	8.02187e-06
1179.62	3.8475e-06
1183.62	9.70387e-06
1187.62	4.11308e-06
1191.61	3.4253e-06
1195.61	5.51588e-06
1199.61	4.73958e-06
1203.6	5.57717e-06
1207.6	6.58501e-06
1211.59	8.40321e-06
1215.59	5.93128e-06
1219.59	8.79818e-06
1223.58	1.05278e-05
1227.58	6.44882e-06
1231.58	4.32418e-06
1235.57	1.04529e-05
1239.57	6.48287e-06
1243.57	2.88733e-06
1247.56	1.02895e-05
1251.56	1.80458e-06
1255.56	8.44407e-06
1259.55	3.79983e-06
1263.55	4.81448e-06
1267.54	4.48081e-06
1271.54	5.91085e-06
1275.54	6.72121e-06
1279.53	1.01125e-05
1283.53	8.3964e-06
1287.53	1.11543e-05
1291.52	1.25844e-05
1295.52	2.16618e-05
1299.52	1.70652e-05
1303.51	9.22038e-06
1307.51	7.14341e-06
1311.51	1.65477e-06
1315.5	7.81077e-06
1319.5	1.39327e-05
1323.49	1.07117e-05
1327.49	1.36399e-05
1331.49	1.13382e-05
1335.48	1.1774e-05
1339.48	9.98988e-06
1343.48	6.63949e-06
1347.47	4.37185e-06
1351.47	3.74535e-06
1355.47	1.82024e-05
1359.46	3.11886e-05
1363.46	3.84001e-05
1367.46	3.79234e-05
1371.45	4.68305e-05
1375.45	5.35586e-05
1379.44	4.75388e-05
1383.44	4.79678e-05
1387.44	4.24655e-05
1391.43	4.53052e-05
1395.43	4.6279e-05
1399.43	3.56013e-05
1403.42	3.9762e-05
1407.42	3.94147e-05
1411.42	4.1982e-05
1415.41	3.45526e-05
1419.41	2.36434e-05
1423.41	2.37047e-05
1427.4	1.58735e-05
1431.4	3.34358e-05
1435.39	3.71607e-05
1439.39	4.96498e-05
1443.39	4.92684e-05
1447.38	7.31842e-05
1451.38	7.88635e-05
1455.38	0.000103569
1459.37	8.71033e-05
1463.37	6.12876e-05
1467.37	6.44405e-05
1471.36	6.38208e-05
1475.36	5.95988e-05
1479.35	4.73753e-05
1483.35	6.64085e-05
1487.35	6.82335e-05
1491.34	8.13218e-05
1495.34	0.000110236
1499.34	0.000108282
1503.33	7.33068e-05
1507.33	5.70928e-05
1511.33	4.81176e-05
1515.32	4.71029e-05
1519.32	5.30546e-05
1523.32	5.31704e-05
1527.31	4.90709e-05
1531.31	5.41033e-05
1535.3	5.18902e-05
1539.3	3.83933e-05
1543.3	2.85396e-05
1547.29	2.96087e-05
1551.29	3.86452e-05
1555.29	4.00753e-05
1559.28	3.3e-05
1563.28	3.15359e-05
1567.28	3.54651e-05
1571.27	2.88324e-05
1575.27	3.11682e-05
1579.27	2.78382e-05
1583.26	3.74331e-05
1587.26	3.23599e-05
1591.25	2.60336e-05
1595.25	2.6272e-05
1599.25	2.51892e-05
1603.24	2.48283e-05
1607.24	2.24994e-05
1611.24	1.62072e-05
1615.23	1.22507e-05
1619.23	7.85843e-06
1623.23	1.07866e-05
1627.22	2.87371e-06
1631.22	3.90198e-06
1635.22	6.67354e-07
1639.21	6.2241e-06
1643.21	5.64527e-06
1647.2	3.72492e-06
1651.2	5.12773e-06
1655.2	6.76888e-06
1659.19	6.98679e-06
1663.19	5.47503e-06
1667.19	8.61431e-06
1671.18	1.31768e-05
1675.18	1.44026e-05
1679.18	8.51898e-06
1683.17	8.81861e-06
1687.17	8.34192e-06
1691.16	6.17643e-06
1695.16	1.72014e-05
1699.16	1.15765e-05
1703.15	1.8359e-05
1707.15	1.02418e-05
1711.15	1.17127e-05
1715.14	2.58702e-05
1719.14	1.50631e-05
1723.14	2.04633e-05
1727.13	1.61118e-05
1731.13	9.5813e-06
1735.13	6.19005e-06
1739.12	9.56768e-06
1743.12	1.47499e-05
1747.11	1.55058e-05
1751.11	1.70243e-05
1755.11	1.25844e-05
1759.1	1.71946e-05
1763.1	8.66198e-06
1767.1	1.53355e-05
1771.09	1.90332e-05
1775.09	1.29657e-05
1779.09	1.55398e-05
1783.08	1.09705e-05
1787.08	1.15629e-05
1791.08	1.15221e-05
1795.07	1.05823e-05
1799.07	9.92178e-06
1803.06	1.02963e-05
1807.06	8.85946e-06
1811.06	1.7467e-05
1815.05	7.3477e-06
1819.05	1.47567e-05
1823.05	3.07119e-06
1827.04	9.14547e-06
1831.04	1.19579e-05
1835.04	8.15806e-06
1839.03	4.38547e-06
1843.03	7.77672e-06
1847.03	5.37288e-06
1851.02	1.39123e-05
1855.02	1.83182e-06
1859.01	8.56665e-06
1863.01	7.65414e-06
1867.01	6.97998e-06
1871	5.54993e-06
1875	2.21997e-06